" File: Users\Wavelength\Desktop\test2.SSM
"  SCOPE->  Wave:448.60nm  Pix:451  Val:  6.600  Time: 70ms  Avg:5  Sm:0  Sg:0  Tc:off  Z  SNAP  Xt:1  Ch:1  Xtrig  
 400.00  4.6721E+000
 400.50  -5.1079E+000
 401.00  3.7707E+000
 401.50  5.0664E+000
 402.00  4.8809E+000
 402.50  -4.1384E+000
 403.00  -4.4406E+000
 403.50  -6.3281E+000
 404.00  -1.8364E+001
 404.50  -2.3903E+001
 405.00  -1.8514E+001
 405.50  -9.0397E+000
 406.00  -1.3495E+001
 406.50  -1.8451E+001
 407.00  -1.5021E+001
 407.50  -5.3534E+000
 408.00  -2.7877E+000
 408.50  -8.9709E+000
 409.00  -6.4263E+000
 409.50  -7.0894E+000
 410.00  -9.7822E+000
 410.50  -2.5875E+001
 411.00  -3.3490E+001
 411.50  -3.2159E+001
 412.00  -2.5227E+001
 412.50  -1.4734E+001
 413.00  -2.6149E+001
 413.50  -2.7057E+001
 414.00  -2.3023E+001
 414.50  -1.5782E+001
 415.00  -1.1989E+001
 415.50  -1.2358E+001
 416.00  -1.4440E+001
 416.50  -1.2433E+001
 417.00  -1.9142E+001
 417.50  -2.3912E+001
 418.00  -3.2297E+001
 418.50  -2.9206E+001
 419.00  -1.4364E+001
 419.50  -1.3733E+001
 420.00  -1.9701E+001
 420.50  -2.2906E+001
 421.00  -2.4096E+001
 421.50  -1.9950E+001
 422.00  -1.0112E+001
 422.50  -3.2895E-001
 423.00  -6.2966E-001
 423.50  1.1280E+000
 424.00  4.5795E+000
 424.50  4.1246E+000
 425.00  5.2850E+000
 425.50  6.9563E-001
 426.00  -4.5595E+000
 426.50  -7.8743E+000
 427.00  -1.5709E+001
 427.50  -2.2092E+001
 428.00  -2.2514E+001
 428.50  -1.8422E+001
 429.00  -1.2272E+001
 429.50  -1.4180E+001
 430.00  -1.1293E+001
 430.50  -1.1947E+001
 431.00  -1.5648E+001
 431.50  -1.2510E+001
 432.00  1.5626E+000
 432.50  -2.0694E+000
 433.00  -3.1433E+000
 433.50  -2.7172E+000
 434.00  -1.5159E+001
 434.50  -2.1938E+001
 435.00  -2.4781E+001
 435.50  -1.4127E+001
 436.00  -7.0668E+000
 436.50  -1.2632E+001
 437.00  -5.4149E+000
 437.50  3.4945E+000
 438.00  9.9899E-001
 438.50  4.4295E+000
 439.00  6.3146E+000
 439.50  -6.8114E+000
 440.00  -7.3809E+000
 440.50  -2.4370E+000
 441.00  -2.1175E+000
 441.50  1.7602E+000
 442.00  -5.3723E+000
 442.50  -6.1665E+000
 443.00  4.3688E+000
 443.50  1.1632E+001
 444.00  1.5347E+001
 444.50  1.5307E+001
 445.00  1.6886E+001
 445.50  1.1431E+001
 446.00  3.3247E+000
 446.50  -2.3200E+000
 447.00  -1.6614E-001
 447.50  -7.9663E+000
 448.00  4.2047E+000
 448.50  7.0255E+000
 449.00  6.7084E-001
 449.50  6.5394E+000
 450.00  -3.4190E+000
 450.50  5.5177E+000
 451.00  -1.5103E+000
 451.50  -6.3234E+000
 452.00  -2.2462E+001
 452.50  -3.2187E+001
 453.00  -2.3788E+001
 453.50  -2.0376E+001
 454.00  -1.8947E+000
 454.50  -8.5643E+000
 455.00  -2.1427E+001
 455.50  -1.6381E+001
 456.00  -1.0743E+001
 456.50  -1.7321E+001
 457.00  -1.0950E+001
 457.50  -2.3275E+001
 458.00  -1.5982E+001
 458.50  -8.2952E+000
 459.00  2.4962E+000
 459.50  -1.0254E+001
 460.00  -2.5358E+001
 460.50  -2.4233E+001
 461.00  -1.3057E+000
 461.50  3.4919E+000
 462.00  3.8781E+000
 462.50  -9.2624E+000
 463.00  -9.7740E+000
 463.50  -1.2532E+001
 464.00  -2.5377E+001
 464.50  -3.0828E+001
 465.00  -2.4620E+001
 465.50  -2.8120E+001
 466.00  -2.0885E+001
 466.50  -1.4015E+001
 467.00  -1.6876E+001
 467.50  -3.6502E+001
 468.00  -3.6473E+001
 468.50  -3.2740E+001
 469.00  -3.8475E+001
 469.50  -3.8991E+001
 470.00  -3.3247E+001
 470.50  -2.9534E+001
 471.00  -1.8307E+001
 471.50  -1.4106E+001
 472.00  -6.6500E+000
 472.50  -2.6000E+000
 473.00  2.0889E+000
 473.50  -8.6226E+000
 474.00  -1.8860E+001
 474.50  -1.3168E+001
 475.00  -3.8994E+000
 475.50  -1.4943E+001
 476.00  -1.4699E+001
 476.50  -9.1256E-001
 477.00  -1.0290E+001
 477.50  -1.0807E+001
 478.00  -1.8136E+001
 478.50  -2.4374E+001
 479.00  -2.2653E+001
 479.50  -1.4975E+001
 480.00  -1.0166E+001
 480.50  -1.4839E+001
 481.00  -1.4005E+001
 481.50  -1.7918E+001
 482.00  6.6974E-001
 482.50  -3.1383E+000
 483.00  -1.2865E+000
 483.50  -2.0139E+001
 484.00  -9.8813E+000
 484.50  -8.9535E+000
 485.00  -1.2146E+001
 485.50  -5.9496E+000
 486.00  -5.8100E+000
 486.50  7.8064E+000
 487.00  8.3897E+000
 487.50  -1.3097E+000
 488.00  -2.1298E+000
 488.50  1.2229E+000
 489.00  1.1242E+001
 489.50  8.1277E-001
 490.00  -9.0186E+000
 490.50  -6.9561E+000
 491.00  3.2862E+000
 491.50  1.3870E+001
 492.00  8.1054E+000
 492.50  6.9479E+000
 493.00  -9.6256E+000
 493.50  1.3914E+001
 494.00  -6.7500E+000
 494.50  -9.1406E+000
 495.00  -3.0624E+001
 495.50  -3.3481E+000
 496.00  -8.5532E+000
 496.50  -1.5557E+001
 497.00  -1.3363E+001
 497.50  -1.4656E+001
 498.00  5.2899E+000
 498.50  -4.1059E+000
 499.00  -1.4297E+001
 499.50  1.3095E+000
 500.00  -1.6809E+000
 500.50  -4.2629E+000
 501.00  5.9362E+000
 501.50  1.3140E+001
 502.00  6.3972E+000
 502.50  1.0451E+001
 503.00  1.5069E+000
 503.50  5.2457E+000
 504.00  2.0697E+001
 504.50  1.5382E+001
 505.00  2.0810E+001
 505.50  2.5009E+001
 506.00  2.6090E+001
 506.50  2.0787E+001
 507.00  5.6883E+000
 507.50  -1.4902E+000
 508.00  1.3059E+001
 508.50  6.2322E+000
 509.00  -5.0303E+000
 509.50  1.7164E+001
 510.00  1.0755E+001
 510.50  1.4415E+001
 511.00  1.6182E+001
 511.50  1.6317E+001
 512.00  1.9409E+001
 512.50  2.0868E+001
 513.00  2.1492E+001
 513.50  2.8510E+001
 514.00  1.6698E+001
 514.50  9.3494E+000
 515.00  1.6233E+000
 515.50  -2.5255E+000
 516.00  -2.9171E+000
 516.50  -5.5070E+000
 517.00  -5.6031E+000
 517.50  1.1106E+001
 518.00  1.3845E+001
 518.50  1.9027E+001
 519.00  2.9486E+000
 519.50  7.2036E+000
 520.00  1.4741E+001
 520.50  1.2040E+001
 521.00  1.4981E+001
 521.50  5.2048E+000
 522.00  4.2478E+000
 522.50  3.9863E+000
 523.00  3.1479E+000
 523.50  9.7756E+000
 524.00  3.8607E+000
 524.50  6.9974E+000
 525.00  1.1250E+001
 525.50  5.1150E+000
 526.00  7.6203E+000
 526.50  -2.0766E+000
 527.00  -1.6299E+000
 527.50  2.1202E+001
 528.00  1.8436E+001
 528.50  1.5564E+001
 529.00  3.0765E+001
 529.50  1.4010E+001
 530.00  1.5251E+001
 530.50  1.6670E+001
 531.00  1.9569E+001
 531.50  1.7247E+001
 532.00  3.4245E+001
 532.50  2.7466E+001
 533.00  1.4126E+001
 533.50  1.8979E+001
 534.00  2.3718E+001
 534.50  2.1413E+001
 535.00  1.8101E+001
 535.50  1.8387E+001
 536.00  2.2623E+001
 536.50  2.4939E+001
 537.00  3.6785E+001
 537.50  4.5230E+001
 538.00  4.9634E+001
 538.50  3.5999E+001
 539.00  3.7848E+001
 539.50  2.8008E+001
 540.00  3.1982E+001
 540.50  2.5310E+001
 541.00  3.5846E+001
 541.50  2.2770E+001
 542.00  1.8202E+001
 542.50  2.3687E+001
 543.00  3.0180E+001
 543.50  4.5463E+001
 544.00  5.2491E+001
 544.50  4.4372E+001
 545.00  4.3203E+001
 545.50  4.9577E+001
 546.00  6.2706E+001
 546.50  4.0599E+001
 547.00  3.4573E+001
 547.50  3.2803E+001
 548.00  2.1536E+001
 548.50  4.5166E+001
 549.00  5.6363E+001
 549.50  3.7914E+001
 550.00  3.1747E+001
 550.50  3.1840E+001
 551.00  3.0028E+001
 551.50  3.7972E+001
 552.00  2.4118E+001
 552.50  1.0164E+001
 553.00  2.0920E+001
 553.50  2.4805E+001
 554.00  4.1686E+001
 554.50  4.6028E+001
 555.00  4.7110E+001
 555.50  3.4538E+001
 556.00  3.2448E+001
 556.50  2.5471E+001
 557.00  2.1895E+001
 557.50  2.7139E+001
 558.00  2.0134E+001
 558.50  2.4184E+001
 559.00  2.2327E+001
 559.50  2.1438E+001
 560.00  2.6280E+001
 560.50  2.9578E+001
 561.00  3.1398E+001
 561.50  3.3730E+001
 562.00  3.1811E+001
 562.50  3.5946E+001
 563.00  3.0148E+001
 563.50  2.8105E+001
 564.00  4.3742E+001
 564.50  1.8154E+001
 565.00  3.0750E+001
 565.50  2.4525E+001
 566.00  2.5370E+001
 566.50  2.9536E+001
 567.00  3.4230E+001
 567.50  4.2388E+001
 568.00  4.7202E+001
 568.50  6.0453E+001
 569.00  5.8781E+001
 569.50  5.8982E+001
 570.00  5.1787E+001
 570.50  6.4447E+001
 571.00  5.7712E+001
 571.50  5.8271E+001
 572.00  5.5410E+001
 572.50  5.5358E+001
 573.00  6.0353E+001
 573.50  6.1932E+001
 574.00  5.6918E+001
 574.50  6.0575E+001
 575.00  6.8347E+001
 575.50  7.4602E+001
 576.00  6.1449E+001
 576.50  6.9372E+001
 577.00  6.1054E+001
 577.50  5.0846E+001
 578.00  5.4355E+001
 578.50  5.3325E+001
 579.00  8.4200E+001
 579.50  8.4552E+001
 580.00  7.7660E+001
 580.50  6.3458E+001
 581.00  5.9516E+001
 581.50  4.7210E+001
 582.00  4.8312E+001
 582.50  6.1421E+001
 583.00  5.1311E+001
 583.50  3.6992E+001
 584.00  4.0624E+001
 584.50  5.2341E+001
 585.00  4.8416E+001
 585.50  5.4312E+001
 586.00  7.1999E+001
 586.50  7.0674E+001
 587.00  8.0785E+001
 587.50  6.9810E+001
 588.00  6.9418E+001
 588.50  7.4687E+001
 589.00  7.1301E+001
 589.50  6.2238E+001
 590.00  6.6336E+001
 590.50  5.9660E+001
 591.00  5.5474E+001
 591.50  6.8920E+001
 592.00  6.7907E+001
 592.50  7.1493E+001
 593.00  8.1930E+001
 593.50  8.9853E+001
 594.00  9.1839E+001
 594.50  9.5163E+001
 595.00  7.6585E+001
 595.50  8.2629E+001
 596.00  9.3208E+001
 596.50  7.4921E+001
 597.00  7.0690E+001
 597.50  7.3547E+001
 598.00  7.3922E+001
 598.50  6.7677E+001
 599.00  7.5625E+001
 599.50  7.5316E+001
 600.00  8.8248E+001
 600.50  9.1042E+001
 601.00  8.8577E+001
 601.50  9.2629E+001
 602.00  9.1898E+001
 602.50  9.1438E+001
 603.00  7.8543E+001
 603.50  8.5326E+001
 604.00  8.8669E+001
 604.50  9.2016E+001
 605.00  8.9518E+001
 605.50  8.8869E+001
 606.00  9.4950E+001
 606.50  8.6049E+001
 607.00  1.1139E+002
 607.50  9.6175E+001
 608.00  1.0229E+002
 608.50  1.0837E+002
 609.00  9.9067E+001
 609.50  1.0116E+002
 610.00  1.0110E+002
 610.50  9.1650E+001
 611.00  9.3624E+001
 611.50  1.1491E+002
 612.00  1.0303E+002
 612.50  1.0194E+002
 613.00  1.0170E+002
 613.50  1.1063E+002
 614.00  1.1070E+002
 614.50  1.1296E+002
 615.00  1.1765E+002
 615.50  1.2195E+002
 616.00  1.1037E+002
 616.50  1.0655E+002
 617.00  1.2788E+002
 617.50  9.0442E+001
 618.00  1.0815E+002
 618.50  1.0037E+002
 619.00  8.7133E+001
 619.50  1.0038E+002
 620.00  1.0197E+002
 620.50  1.0704E+002
 621.00  1.0882E+002
 621.50  1.0237E+002
 622.00  1.0168E+002
 622.50  1.2847E+002
 623.00  1.3497E+002
 623.50  1.2204E+002
 624.00  1.2227E+002
 624.50  1.2508E+002
 625.00  1.1174E+002
 625.50  1.0912E+002
 626.00  1.1682E+002
 626.50  1.0785E+002
 627.00  1.1060E+002
 627.50  9.9879E+001
 628.00  1.0920E+002
 628.50  1.1229E+002
 629.00  1.0564E+002
 629.50  1.1362E+002
 630.00  1.2427E+002
 630.50  1.3292E+002
 631.00  1.3528E+002
 631.50  1.4504E+002
 632.00  1.3938E+002
 632.50  1.2694E+002
 633.00  1.4338E+002
 633.50  1.3684E+002
 634.00  1.3080E+002
 634.50  1.2316E+002
 635.00  1.0241E+002
 635.50  1.1066E+002
 636.00  1.0704E+002
 636.50  1.0996E+002
 637.00  1.0848E+002
 637.50  1.0561E+002
 638.00  9.8927E+001
 638.50  1.0289E+002
 639.00  1.0692E+002
 639.50  1.2810E+002
 640.00  1.3658E+002
 640.50  1.3569E+002
 641.00  1.3493E+002
 641.50  1.4048E+002
 642.00  1.4199E+002
 642.50  1.4660E+002
 643.00  1.4812E+002
 643.50  1.6102E+002
 644.00  1.5097E+002
 644.50  1.3439E+002
 645.00  1.3487E+002
 645.50  1.3562E+002
 646.00  1.2209E+002
 646.50  1.2374E+002
 647.00  1.3846E+002
 647.50  1.3291E+002
 648.00  1.4947E+002
 648.50  1.5713E+002
 649.00  1.5126E+002
 649.50  1.5073E+002
 650.00  1.3772E+002
 650.50  1.4614E+002
 651.00  1.4702E+002
 651.50  1.4890E+002
 652.00  1.4729E+002
 652.50  1.4593E+002
 653.00  1.4708E+002
 653.50  1.5234E+002
 654.00  1.4396E+002
 654.50  1.4348E+002
 655.00  1.4438E+002
 655.50  1.3796E+002
 656.00  1.5005E+002
 656.50  1.5073E+002
 657.00  1.4582E+002
 657.50  1.3845E+002
 658.00  1.4368E+002
 658.50  1.3773E+002
 659.00  1.4836E+002
 659.50  1.6685E+002
 660.00  1.6948E+002
 660.50  1.6832E+002
 661.00  1.6689E+002
 661.50  1.5570E+002
 662.00  1.5518E+002
 662.50  1.5912E+002
 663.00  1.6097E+002
 663.50  1.5150E+002
 664.00  1.6175E+002
 664.50  1.5759E+002
 665.00  1.5323E+002
 665.50  1.4697E+002
 666.00  1.4237E+002
 666.50  1.5881E+002
 667.00  1.4655E+002
 667.50  1.5106E+002
 668.00  1.4727E+002
 668.50  1.6126E+002
 669.00  1.5670E+002
 669.50  1.5605E+002
 670.00  1.5208E+002
 670.50  1.5577E+002
 671.00  1.4444E+002
 671.50  1.4637E+002
 672.00  1.6414E+002
 672.50  1.6304E+002
 673.00  1.6686E+002
 673.50  1.5330E+002
 674.00  1.5077E+002
 674.50  1.5130E+002
 675.00  1.6255E+002
 675.50  1.6821E+002
 676.00  1.7001E+002
 676.50  1.7945E+002
 677.00  1.7937E+002
 677.50  1.8257E+002
 678.00  1.7815E+002
 678.50  1.7871E+002
 679.00  1.7211E+002
 679.50  1.6903E+002
 680.00  1.6348E+002
 680.50  1.6899E+002
 681.00  1.5031E+002
 681.50  1.4382E+002
 682.00  1.5224E+002
 682.50  1.5694E+002
 683.00  1.2373E+002
 683.50  1.4660E+002
 684.00  1.6469E+002
 684.50  1.5442E+002
 685.00  1.6963E+002
 685.50  1.7754E+002
 686.00  1.7692E+002
 686.50  1.8136E+002
 687.00  1.8332E+002
 687.50  1.8923E+002
 688.00  1.8560E+002
 688.50  1.6712E+002
 689.00  1.7125E+002
 689.50  1.8542E+002
 690.00  1.8263E+002
 690.50  1.5662E+002
 691.00  1.6598E+002
 691.50  1.6176E+002
 692.00  1.7358E+002
 692.50  1.8048E+002
 693.00  1.7370E+002
 693.50  1.6642E+002
 694.00  1.5887E+002
 694.50  1.6089E+002
 695.00  1.4316E+002
 695.50  1.4342E+002
 696.00  1.5692E+002
 696.50  1.5412E+002
 697.00  1.6641E+002
 697.50  1.7543E+002
 698.00  1.4752E+002
 698.50  1.5692E+002
 699.00  1.5784E+002
 699.50  1.5573E+002
 700.00  1.5601E+002
 700.50  1.7177E+002
 701.00  1.6499E+002
 701.50  1.8956E+002
 702.00  1.9605E+002
 702.50  1.9226E+002
 703.00  1.8815E+002
 703.50  1.8736E+002
 704.00  1.8628E+002
 704.50  1.9352E+002
 705.00  1.7849E+002
 705.50  1.8972E+002
 706.00  1.7951E+002
 706.50  1.7564E+002
 707.00  1.7819E+002
 707.50  1.7396E+002
 708.00  1.7253E+002
 708.50  1.7791E+002
 709.00  1.8251E+002
 709.50  1.8366E+002
 710.00  1.8545E+002
 710.50  1.8705E+002
 711.00  1.6565E+002
 711.50  1.9193E+002
 712.00  1.7330E+002
 712.50  1.8038E+002
 713.00  1.8200E+002
 713.50  1.9357E+002
 714.00  1.8958E+002
 714.50  1.9070E+002
 715.00  1.8281E+002
 715.50  1.6470E+002
 716.00  1.6889E+002
 716.50  1.7798E+002
 717.00  1.8083E+002
 717.50  1.9224E+002
 718.00  1.8479E+002
 718.50  1.8072E+002
 719.00  1.8531E+002
 719.50  1.7187E+002
 720.00  1.6476E+002
 720.50  1.7198E+002
 721.00  1.7492E+002
 721.50  1.7144E+002
 722.00  1.6818E+002
 722.50  1.5068E+002
 723.00  1.6332E+002
 723.50  1.7161E+002
 724.00  1.7577E+002
 724.50  1.8777E+002
 725.00  1.8857E+002
 725.50  1.9584E+002
 726.00  2.0805E+002
 726.50  2.0558E+002
 727.00  2.1182E+002
 727.50  1.9726E+002
 728.00  1.9284E+002
 728.50  1.7816E+002
 729.00  1.7409E+002
 729.50  1.7580E+002
 730.00  1.8503E+002
 730.50  1.9004E+002
 731.00  1.8773E+002
 731.50  1.8907E+002
 732.00  1.7845E+002
 732.50  1.7919E+002
 733.00  2.0973E+002
 733.50  1.7852E+002
 734.00  1.8736E+002
 734.50  1.9685E+002
 735.00  1.8454E+002
 735.50  1.9095E+002
 736.00  2.0967E+002
 736.50  2.1652E+002
 737.00  2.1259E+002
 737.50  1.9913E+002
 738.00  1.7584E+002
 738.50  1.9762E+002
 739.00  2.1062E+002
 739.50  2.0852E+002
 740.00  1.9273E+002
 740.50  2.1422E+002
 741.00  2.0748E+002
 741.50  1.9155E+002
 742.00  1.8643E+002
 742.50  1.8313E+002
 743.00  1.9467E+002
 743.50  2.0049E+002
 744.00  2.1534E+002
 744.50  2.0368E+002
 745.00  2.0691E+002
 745.50  2.2416E+002
 746.00  2.1260E+002
 746.50  2.0704E+002
 747.00  2.0006E+002
 747.50  1.9682E+002
 748.00  1.9487E+002
 748.50  2.0764E+002
 749.00  2.0218E+002
 749.50  1.9097E+002
 750.00  1.8380E+002
 750.50  1.9078E+002
 751.00  1.8504E+002
 751.50  1.8616E+002
 752.00  1.9738E+002
 752.50  1.8975E+002
 753.00  1.9668E+002
 753.50  1.9653E+002
 754.00  1.9103E+002
 754.50  1.9434E+002
 755.00  2.0657E+002
 755.50  2.2654E+002
 756.00  2.1238E+002
 756.50  2.1352E+002
 757.00  2.1551E+002
 757.50  2.0494E+002
 758.00  2.0276E+002
 758.50  1.9846E+002
 759.00  1.9019E+002
 759.50  1.8999E+002
 760.00  1.9300E+002
 760.50  1.9764E+002
 761.00  1.9891E+002
 761.50  2.0605E+002
 762.00  1.9309E+002
 762.50  2.0923E+002
 763.00  2.0210E+002
 763.50  1.9108E+002
 764.00  1.9770E+002
 764.50  1.8850E+002
 765.00  1.8785E+002
 765.50  1.8234E+002
 766.00  1.9136E+002
 766.50  1.7606E+002
 767.00  1.8361E+002
 767.50  1.8520E+002
 768.00  1.9534E+002
 768.50  2.1041E+002
 769.00  2.1014E+002
 769.50  2.0153E+002
 770.00  1.7209E+002
 770.50  1.7701E+002
 771.00  1.9003E+002
 771.50  1.8361E+002
 772.00  1.7790E+002
 772.50  1.8323E+002
 773.00  1.8942E+002
 773.50  1.8683E+002
 774.00  1.9771E+002
 774.50  1.8681E+002
 775.00  1.7758E+002
 775.50  1.7635E+002
 776.00  1.9079E+002
 776.50  1.8266E+002
 777.00  1.7902E+002
 777.50  1.9539E+002
 778.00  1.7403E+002
 778.50  1.6164E+002
 779.00  1.8802E+002
 779.50  1.8496E+002
 780.00  1.7518E+002
 780.50  1.7661E+002
 781.00  1.7344E+002
 781.50  1.6732E+002
 782.00  1.7477E+002
 782.50  1.8436E+002
 783.00  1.8118E+002
 783.50  1.8613E+002
 784.00  2.0155E+002
 784.50  2.0252E+002
 785.00  1.8878E+002
 785.50  1.9903E+002
 786.00  1.9589E+002
 786.50  1.9801E+002
 787.00  1.8038E+002
 787.50  2.1023E+002
 788.00  1.8950E+002
 788.50  1.8489E+002
 789.00  1.9176E+002
 789.50  1.9396E+002
 790.00  1.8715E+002
 790.50  1.8761E+002
 791.00  1.8865E+002
 791.50  2.0706E+002
 792.00  1.9258E+002
 792.50  1.7550E+002
 793.00  1.8587E+002
 793.50  1.9177E+002
 794.00  2.0000E+002
 794.50  1.9636E+002
 795.00  1.9785E+002
 795.50  1.9750E+002
 796.00  1.8351E+002
 796.50  1.8497E+002
 797.00  1.8811E+002
 797.50  1.9876E+002
 798.00  2.0575E+002
 798.50  1.9147E+002
 799.00  1.8308E+002
 799.50  1.8555E+002
 800.00  2.0728E+002
 800.50  2.0492E+002
 801.00  2.0273E+002
 801.50  2.0752E+002
 802.00  1.8954E+002
 802.50  1.8966E+002
 803.00  1.9018E+002
 803.50  2.0708E+002
 804.00  2.1677E+002
 804.50  2.1892E+002
 805.00  2.0795E+002
 805.50  1.8511E+002
 806.00  1.8895E+002
 806.50  1.8675E+002
 807.00  1.6696E+002
 807.50  1.7564E+002
 808.00  1.7637E+002
 808.50  1.6997E+002
 809.00  1.7806E+002
 809.50  1.7947E+002
 810.00  1.9617E+002
 810.50  1.9500E+002
 811.00  1.9116E+002
 811.50  1.8968E+002
 812.00  1.9314E+002
 812.50  1.8554E+002
 813.00  1.9377E+002
 813.50  1.8666E+002
 814.00  1.9251E+002
 814.50  1.8601E+002
 815.00  1.9920E+002
 815.50  1.9132E+002
 816.00  1.8491E+002
 816.50  1.7107E+002
 817.00  1.4353E+002
 817.50  1.7013E+002
 818.00  1.8615E+002
 818.50  1.7554E+002
 819.00  1.7564E+002
 819.50  1.9541E+002
 820.00  1.8544E+002
 820.50  1.8985E+002
 821.00  1.8153E+002
 821.50  1.8814E+002
 822.00  1.9172E+002
 822.50  1.8851E+002
 823.00  1.8900E+002
 823.50  1.7705E+002
 824.00  1.8008E+002
 824.50  1.8417E+002
 825.00  1.8577E+002
 825.50  2.0218E+002
 826.00  1.9005E+002
 826.50  2.0600E+002
 827.00  1.9592E+002
 827.50  1.7422E+002
 828.00  1.7549E+002
 828.50  1.8362E+002
 829.00  1.7986E+002
 829.50  1.7782E+002
 830.00  1.6734E+002
 830.50  1.8080E+002
 831.00  1.8025E+002
 831.50  1.8487E+002
 832.00  1.8097E+002
 832.50  2.0254E+002
 833.00  1.9174E+002
 833.50  1.8784E+002
 834.00  1.7167E+002
 834.50  1.6901E+002
 835.00  1.8057E+002
 835.50  1.7313E+002
 836.00  1.7525E+002
 836.50  1.7579E+002
 837.00  1.6877E+002
 837.50  1.8003E+002
 838.00  1.7846E+002
 838.50  1.7595E+002
 839.00  1.5984E+002
 839.50  1.5268E+002
 840.00  1.7077E+002
 840.50  1.8207E+002
 841.00  1.8057E+002
 841.50  1.8003E+002
 842.00  1.7497E+002
 842.50  1.7663E+002
 843.00  1.6868E+002
 843.50  1.8634E+002
 844.00  1.7849E+002
 844.50  1.9092E+002
 845.00  1.5100E+002
 845.50  1.5517E+002
 846.00  1.7199E+002
 846.50  1.7620E+002
 847.00  1.7107E+002
 847.50  1.8763E+002
 848.00  1.7575E+002
 848.50  1.8421E+002
 849.00  1.6956E+002
 849.50  1.8105E+002
 850.00  1.7264E+002
 850.50  1.7191E+002
 851.00  1.8468E+002
 851.50  1.7584E+002
 852.00  1.6994E+002
 852.50  1.5874E+002
 853.00  1.6691E+002
 853.50  1.6037E+002
 854.00  1.7045E+002
 854.50  1.4855E+002
 855.00  1.8097E+002
 855.50  1.9301E+002
 856.00  1.8602E+002
 856.50  1.7749E+002
 857.00  1.7841E+002
 857.50  1.7550E+002
 858.00  1.7546E+002
 858.50  1.6967E+002
 859.00  1.7334E+002
 859.50  1.6912E+002
 860.00  1.7284E+002
 860.50  1.5416E+002
 861.00  1.4572E+002
 861.50  1.6940E+002
 862.00  1.6149E+002
 862.50  1.5057E+002
 863.00  1.5324E+002
 863.50  1.5472E+002
 864.00  1.5912E+002
 864.50  1.5872E+002
 865.00  1.4942E+002
 865.50  1.4657E+002
 866.00  1.5396E+002
 866.50  1.4204E+002
 867.00  1.4470E+002
 867.50  1.5069E+002
 868.00  1.4075E+002
 868.50  1.5707E+002
 869.00  1.5191E+002
 869.50  1.5234E+002
 870.00  1.6155E+002
 870.50  1.6639E+002
 871.00  1.6340E+002
 871.50  1.7170E+002
 872.00  1.6122E+002
 872.50  1.4624E+002
 873.00  1.3982E+002
 873.50  1.3600E+002
 874.00  1.5632E+002
 874.50  1.4788E+002
 875.00  1.3929E+002
 875.50  1.4412E+002
 876.00  1.4950E+002
 876.50  1.6328E+002
 877.00  1.7017E+002
 877.50  1.5442E+002
 878.00  1.6367E+002
 878.50  1.6428E+002
 879.00  1.6977E+002
 879.50  1.5967E+002
 880.00  1.6485E+002
 880.50  1.6936E+002
 881.00  1.5811E+002
 881.50  1.5776E+002
 882.00  1.5034E+002
 882.50  1.5861E+002
 883.00  1.5176E+002
 883.50  1.5751E+002
 884.00  1.4995E+002
 884.50  1.3986E+002
 885.00  1.4883E+002
 885.50  1.4925E+002
 886.00  1.4664E+002
 886.50  1.5957E+002
 887.00  1.6644E+002
 887.50  1.6082E+002
 888.00  1.6222E+002
 888.50  1.5768E+002
 889.00  1.3838E+002
 889.50  1.3745E+002
 890.00  1.3672E+002
 890.50  1.3988E+002
 891.00  1.3967E+002
 891.50  1.4475E+002
 892.00  1.4255E+002
 892.50  1.4219E+002
 893.00  1.3429E+002
 893.50  1.3820E+002
 894.00  1.4217E+002
 894.50  1.4967E+002
 895.00  1.5348E+002
 895.50  1.6187E+002
 896.00  1.5332E+002
 896.50  1.4154E+002
 897.00  1.3423E+002
 897.50  1.4112E+002
 898.00  1.4297E+002
 898.50  1.5719E+002
 899.00  1.5516E+002
 899.50  1.5426E+002
