" File: Users\Wavelength\Desktop\test ear.SSM
"  SCOPE->  Wave:448.60nm  Pix:451  Val: 12.600  Time: 70ms  Avg:5  Sm:0  Sg:0  Tc:off  Z  SNAP  Xt:1  Ch:1  Xtrig  
 400.00  -1.0319E+001
 400.50  -8.8234E+000
 401.00  -7.4157E-001
 401.50  7.7093E-001
 402.00  8.4351E-002
 402.50  3.0000E+000
 403.00  6.3275E+000
 403.50  2.3881E+000
 404.00  -1.4439E+001
 404.50  -2.2735E+001
 405.00  -1.9124E+001
 405.50  -5.3023E+000
 406.00  -3.5775E+000
 406.50  -9.8768E+000
 407.00  -1.8291E+001
 407.50  -1.1421E+001
 408.00  -9.8364E+000
 408.50  -2.0402E+001
 409.00  -1.8983E+001
 409.50  -1.7317E+001
 410.00  -6.1520E+000
 410.50  -6.6753E+000
 411.00  -1.3944E+001
 411.50  -1.2028E+001
 412.00  -1.5041E+001
 412.50  -2.0123E+001
 413.00  -2.3715E+001
 413.50  -2.4239E+001
 414.00  -1.4729E+001
 414.50  8.8885E+000
 415.00  1.7303E+000
 415.50  1.2000E+000
 416.00  6.3876E+000
 416.50  1.2556E+001
 417.00  1.6311E+000
 417.50  -1.1094E+001
 418.00  -2.7581E+001
 418.50  -2.2190E+001
 419.00  -1.4909E+000
 419.50  -5.1913E-001
 420.00  -2.5792E+000
 420.50  -1.5449E+001
 421.00  -1.5591E+001
 421.50  -2.4830E+001
 422.00  -1.7117E+001
 422.50  -5.1586E-001
 423.00  -2.1482E+000
 423.50  -4.7721E+000
 424.00  -9.5972E+000
 424.50  -1.5839E+001
 425.00  -9.1690E-001
 425.50  1.6663E+000
 426.00  -4.0860E+000
 426.50  2.3060E+000
 427.00  -1.4301E+000
 427.50  -1.3748E+001
 428.00  -8.4797E+000
 428.50  2.6827E+000
 429.00  -4.6272E+000
 429.50  -2.1700E+000
 430.00  -3.4332E+000
 430.50  -7.4276E+000
 431.00  -6.9318E+000
 431.50  -1.5921E+001
 432.00  -8.7338E+000
 432.50  -4.6424E+000
 433.00  2.3333E+000
 433.50  5.8655E+000
 434.00  -5.9499E+000
 434.50  -8.5446E+000
 435.00  -7.4523E+000
 435.50  7.8749E-001
 436.00  -2.0177E+000
 436.50  -2.0556E+000
 437.00  1.5173E+000
 437.50  5.8995E+000
 438.00  3.0260E+000
 438.50  -4.2056E+000
 439.00  9.8485E-001
 439.50  1.8830E+000
 440.00  -1.3972E+000
 440.50  -4.4145E+000
 441.00  -6.1370E-001
 441.50  1.0043E+001
 442.00  3.6032E+000
 442.50  -4.3992E+000
 443.00  -2.8693E+000
 443.50  1.2899E+001
 444.00  1.7448E+001
 444.50  1.6956E+001
 445.00  1.6983E+001
 445.50  1.0714E+001
 446.00  8.4882E+000
 446.50  1.0360E+001
 447.00  6.3717E+000
 447.50  5.4481E-001
 448.00  -1.1094E+000
 448.50  9.6638E+000
 449.00  5.8696E+000
 449.50  1.4801E+001
 450.00  8.0708E+000
 450.50  -3.8789E-001
 451.00  -8.6476E+000
 451.50  -1.0849E+001
 452.00  -2.2035E+001
 452.50  -2.2857E+001
 453.00  -2.3493E+000
 453.50  -1.9344E+001
 454.00  -1.2782E+001
 454.50  -1.8607E+001
 455.00  -2.4719E+001
 455.50  -2.2803E+001
 456.00  -2.3470E+001
 456.50  -7.7657E+000
 457.00  -1.3324E+001
 457.50  -3.5242E+001
 458.00  -2.5509E+001
 458.50  -2.3597E+001
 459.00  -1.6649E+001
 459.50  -2.2863E+001
 460.00  -1.1904E+001
 460.50  -2.1994E+001
 461.00  -4.7399E+000
 461.50  1.5810E+000
 462.00  2.1811E+000
 462.50  -9.2158E+000
 463.00  -5.1607E+000
 463.50  -7.0547E+000
 464.00  -1.0589E+001
 464.50  -6.8932E+000
 465.00  1.2403E+001
 465.50  -3.8859E+000
 466.00  -1.8430E+001
 466.50  -1.7850E+001
 467.00  -1.4187E+001
 467.50  -2.7052E+001
 468.00  -2.0341E+001
 468.50  -2.6227E+001
 469.00  -3.2123E+001
 469.50  -2.7887E+001
 470.00  -2.4977E+001
 470.50  -1.1010E+001
 471.00  -5.1793E+000
 471.50  -1.8729E+001
 472.00  -1.1391E+001
 472.50  -1.2363E+001
 473.00  -1.6719E+001
 473.50  -2.2654E+001
 474.00  -3.4260E+001
 474.50  -2.2297E+001
 475.00  -1.3133E+001
 475.50  -2.1794E+001
 476.00  -1.4195E+001
 476.50  3.9505E+000
 477.00  4.0996E+000
 477.50  -2.4340E-001
 478.00  9.7113E+000
 478.50  -1.1194E+001
 479.00  -5.8396E-001
 479.50  -8.1602E+000
 480.00  -3.9139E+000
 480.50  -1.4309E+001
 481.00  -9.0302E+000
 481.50  -2.4390E+001
 482.00  -1.1114E+001
 482.50  -6.2239E+000
 483.00  2.9845E+000
 483.50  -1.2514E+001
 484.00  -1.4947E+001
 484.50  -1.3036E+001
 485.00  -1.1901E+001
 485.50  -4.3305E+000
 486.00  -5.6291E+000
 486.50  1.0428E+001
 487.00  2.3155E+001
 487.50  2.0728E+001
 488.00  1.6886E+001
 488.50  2.0561E+001
 489.00  1.9022E+001
 489.50  7.2601E+000
 490.00  6.3823E+000
 490.50  6.9153E+000
 491.00  1.3376E+001
 491.50  3.7566E+001
 492.00  2.9953E+001
 492.50  2.9314E+001
 493.00  2.3123E+000
 493.50  1.4964E+001
 494.00  -8.4879E+000
 494.50  -9.6850E+000
 495.00  -2.2428E+001
 495.50  7.6325E-001
 496.00  4.4685E+000
 496.50  -2.3648E+000
 497.00  -8.7634E+000
 497.50  -9.6324E+000
 498.00  -2.6317E+000
 498.50  -1.2331E+001
 499.00  -1.4647E+001
 499.50  -1.9295E+000
 500.00  -7.8032E+000
 500.50  -1.8464E+001
 501.00  -5.7641E-001
 501.50  1.4165E+001
 502.00  1.6983E+001
 502.50  1.4868E+001
 503.00  1.3633E+001
 503.50  1.7995E+001
 504.00  2.0104E+001
 504.50  1.1033E+001
 505.00  1.4062E+001
 505.50  1.4484E+001
 506.00  8.1656E+000
 506.50  1.0628E+001
 507.00  -2.3809E+000
 507.50  -7.9177E+000
 508.00  1.1549E+000
 508.50  -8.8710E+000
 509.00  -4.6109E+000
 509.50  1.3717E+001
 510.00  3.8572E+000
 510.50  8.0770E+000
 511.00  8.0913E+000
 511.50  1.1504E+001
 512.00  6.5892E+000
 512.50  -5.7224E+000
 513.00  -1.1666E+000
 513.50  6.4259E+000
 514.00  1.1980E+001
 514.50  7.9203E+000
 515.00  -3.6056E+000
 515.50  2.9529E-002
 516.00  -6.1898E-001
 516.50  -2.0496E+000
 517.00  -5.3471E+000
 517.50  5.5903E+000
 518.00  4.6045E+000
 518.50  1.2413E+001
 519.00  -8.3476E+000
 519.50  -5.9018E+000
 520.00  -9.6706E+000
 520.50  -5.6531E+000
 521.00  8.5911E+000
 521.50  -1.0916E+001
 522.00  -1.8625E+001
 522.50  -1.1712E+000
 523.00  9.2265E+000
 523.50  7.0948E+000
 524.00  9.9265E-001
 524.50  7.0164E-001
 525.00  1.0621E+000
 525.50  7.3382E+000
 526.00  1.1752E+001
 526.50  6.7988E+000
 527.00  -3.5651E+000
 527.50  1.0912E+000
 528.00  4.5831E-001
 528.50  1.6159E+001
 529.00  2.4450E+001
 529.50  1.6205E+001
 530.00  8.1811E+000
 530.50  2.1083E+001
 531.00  6.3077E+000
 531.50  1.2941E+001
 532.00  2.9110E+001
 532.50  1.9061E+001
 533.00  2.1447E+001
 533.50  3.2400E+001
 534.00  2.6205E+001
 534.50  1.8468E+001
 535.00  1.4341E+001
 535.50  1.9238E+001
 536.00  1.8672E+001
 536.50  2.1129E+001
 537.00  2.7879E+001
 537.50  3.3951E+001
 538.00  4.3655E+001
 538.50  3.1174E+001
 539.00  3.4612E+001
 539.50  8.7944E+000
 540.00  1.4051E+001
 540.50  1.5278E+001
 541.00  2.3560E+001
 541.50  3.3784E+001
 542.00  2.2584E+001
 542.50  2.4703E+001
 543.00  3.7879E+001
 543.50  3.4969E+001
 544.00  4.2558E+001
 544.50  4.6158E+001
 545.00  3.8031E+001
 545.50  3.7672E+001
 546.00  4.7212E+001
 546.50  3.3209E+001
 547.00  2.9687E+001
 547.50  2.1416E+001
 548.00  2.7642E+001
 548.50  3.6221E+001
 549.00  4.3363E+001
 549.50  2.5921E+001
 550.00  1.8193E+001
 550.50  1.7381E+001
 551.00  2.6902E+001
 551.50  2.5195E+001
 552.00  1.9609E+001
 552.50  1.7068E+001
 553.00  2.5881E+001
 553.50  3.0400E+001
 554.00  2.8643E+001
 554.50  1.9065E+001
 555.00  2.5558E+001
 555.50  2.0067E+001
 556.00  2.3969E+001
 556.50  1.0376E+001
 557.00  2.0512E+001
 557.50  2.2645E+001
 558.00  1.2386E+001
 558.50  1.3264E+001
 559.00  1.8375E+001
 559.50  2.6364E+001
 560.00  3.7050E+001
 560.50  4.2167E+001
 561.00  3.6968E+001
 561.50  4.1224E+001
 562.00  3.0508E+001
 562.50  3.4383E+001
 563.00  2.0541E+001
 563.50  2.1714E+001
 564.00  3.8242E+001
 564.50  1.9169E+001
 565.00  3.8300E+001
 565.50  3.9838E+001
 566.00  4.2830E+001
 566.50  3.8082E+001
 567.00  3.3933E+001
 567.50  3.7164E+001
 568.00  2.1123E+001
 568.50  1.7088E+001
 569.00  1.8077E+001
 569.50  2.6792E+001
 570.00  4.0165E+001
 570.50  4.0243E+001
 571.00  3.2545E+001
 571.50  2.7325E+001
 572.00  2.8959E+001
 572.50  1.9784E+001
 573.00  2.9655E+001
 573.50  2.7805E+001
 574.00  2.8938E+001
 574.50  2.5118E+001
 575.00  2.5765E+001
 575.50  4.5811E+001
 576.00  4.3812E+001
 576.50  5.7669E+001
 577.00  5.1412E+001
 577.50  5.8478E+001
 578.00  3.8444E+001
 578.50  5.2802E+001
 579.00  6.6428E+001
 579.50  7.4842E+001
 580.00  6.7890E+001
 580.50  5.2388E+001
 581.00  4.1424E+001
 581.50  3.3873E+001
 582.00  1.8428E+001
 582.50  2.6841E+001
 583.00  2.5183E+001
 583.50  1.4897E+001
 584.00  2.5297E+001
 584.50  3.4567E+001
 585.00  2.9453E+001
 585.50  3.2169E+001
 586.00  5.3392E+001
 586.50  4.7939E+001
 587.00  6.0900E+001
 587.50  6.1758E+001
 588.00  5.5308E+001
 588.50  6.4687E+001
 589.00  5.5115E+001
 589.50  5.5959E+001
 590.00  4.7557E+001
 590.50  4.3100E+001
 591.00  4.2462E+001
 591.50  6.2086E+001
 592.00  5.5231E+001
 592.50  4.6829E+001
 593.00  5.6986E+001
 593.50  6.5732E+001
 594.00  6.8146E+001
 594.50  5.4870E+001
 595.00  4.9222E+001
 595.50  6.4185E+001
 596.00  9.6055E+001
 596.50  8.2389E+001
 597.00  8.2066E+001
 597.50  8.8160E+001
 598.00  8.0816E+001
 598.50  7.0915E+001
 599.00  6.7355E+001
 599.50  6.7911E+001
 600.00  7.8499E+001
 600.50  7.2513E+001
 601.00  8.3224E+001
 601.50  9.5387E+001
 602.00  8.7413E+001
 602.50  8.0751E+001
 603.00  6.2594E+001
 603.50  6.9462E+001
 604.00  7.7808E+001
 604.50  8.0085E+001
 605.00  7.5605E+001
 605.50  7.8327E+001
 606.00  7.2599E+001
 606.50  7.9527E+001
 607.00  9.8947E+001
 607.50  1.0129E+002
 608.00  9.4693E+001
 608.50  1.0597E+002
 609.00  9.6367E+001
 609.50  9.2492E+001
 610.00  9.2454E+001
 610.50  8.4246E+001
 611.00  6.9371E+001
 611.50  8.3687E+001
 612.00  9.0466E+001
 612.50  8.7145E+001
 613.00  8.4340E+001
 613.50  9.6720E+001
 614.00  9.1733E+001
 614.50  9.4133E+001
 615.00  1.0843E+002
 615.50  1.1082E+002
 616.00  1.0491E+002
 616.50  9.6591E+001
 617.00  1.0826E+002
 617.50  8.2224E+001
 618.00  1.0336E+002
 618.50  9.7019E+001
 619.00  9.0690E+001
 619.50  1.0214E+002
 620.00  9.8821E+001
 620.50  9.5569E+001
 621.00  9.0205E+001
 621.50  9.1414E+001
 622.00  8.3988E+001
 622.50  8.9866E+001
 623.00  8.6638E+001
 623.50  1.0822E+002
 624.00  1.0394E+002
 624.50  9.8509E+001
 625.00  8.9530E+001
 625.50  9.5793E+001
 626.00  9.7658E+001
 626.50  9.2193E+001
 627.00  1.0223E+002
 627.50  1.1471E+002
 628.00  1.0341E+002
 628.50  1.0792E+002
 629.00  1.0021E+002
 629.50  1.0999E+002
 630.00  1.2031E+002
 630.50  1.2381E+002
 631.00  1.2735E+002
 631.50  1.2578E+002
 632.00  1.2556E+002
 632.50  1.1310E+002
 633.00  1.2344E+002
 633.50  1.1382E+002
 634.00  1.1100E+002
 634.50  1.1227E+002
 635.00  1.0138E+002
 635.50  1.0491E+002
 636.00  1.0776E+002
 636.50  9.9045E+001
 637.00  9.7534E+001
 637.50  1.0578E+002
 638.00  1.1062E+002
 638.50  1.0931E+002
 639.00  1.0283E+002
 639.50  1.1303E+002
 640.00  1.3373E+002
 640.50  1.2942E+002
 641.00  1.2045E+002
 641.50  1.2108E+002
 642.00  1.1416E+002
 642.50  1.2912E+002
 643.00  1.3016E+002
 643.50  1.3150E+002
 644.00  1.2173E+002
 644.50  1.0685E+002
 645.00  1.2284E+002
 645.50  1.0671E+002
 646.00  1.1753E+002
 646.50  1.0643E+002
 647.00  1.2354E+002
 647.50  1.1475E+002
 648.00  1.2971E+002
 648.50  1.2480E+002
 649.00  1.2653E+002
 649.50  1.4325E+002
 650.00  1.3522E+002
 650.50  1.3219E+002
 651.00  1.3175E+002
 651.50  1.2803E+002
 652.00  1.3313E+002
 652.50  1.3856E+002
 653.00  1.4325E+002
 653.50  1.4030E+002
 654.00  1.4595E+002
 654.50  1.4582E+002
 655.00  1.3972E+002
 655.50  1.1745E+002
 656.00  1.1853E+002
 656.50  1.1886E+002
 657.00  1.2021E+002
 657.50  1.2344E+002
 658.00  1.2206E+002
 658.50  1.2162E+002
 659.00  1.3413E+002
 659.50  1.3644E+002
 660.00  1.2686E+002
 660.50  1.2801E+002
 661.00  1.2909E+002
 661.50  1.2431E+002
 662.00  1.2496E+002
 662.50  1.2852E+002
 663.00  1.3367E+002
 663.50  1.2450E+002
 664.00  1.3653E+002
 664.50  1.2695E+002
 665.00  1.4094E+002
 665.50  1.3997E+002
 666.00  1.3111E+002
 666.50  1.3217E+002
 667.00  1.2652E+002
 667.50  1.2559E+002
 668.00  1.2907E+002
 668.50  1.5227E+002
 669.00  1.4410E+002
 669.50  1.4145E+002
 670.00  1.3838E+002
 670.50  1.4853E+002
 671.00  1.4374E+002
 671.50  1.2711E+002
 672.00  1.2414E+002
 672.50  1.3038E+002
 673.00  1.4240E+002
 673.50  1.3389E+002
 674.00  1.2650E+002
 674.50  1.3310E+002
 675.00  1.4052E+002
 675.50  1.3787E+002
 676.00  1.3447E+002
 676.50  1.4582E+002
 677.00  1.5147E+002
 677.50  1.5176E+002
 678.00  1.4583E+002
 678.50  1.4460E+002
 679.00  1.5363E+002
 679.50  1.4629E+002
 680.00  1.4871E+002
 680.50  1.5306E+002
 681.00  1.3670E+002
 681.50  1.2569E+002
 682.00  1.4122E+002
 682.50  1.4383E+002
 683.00  1.1415E+002
 683.50  1.3670E+002
 684.00  1.4359E+002
 684.50  1.3302E+002
 685.00  1.3511E+002
 685.50  1.4972E+002
 686.00  1.4689E+002
 686.50  1.3503E+002
 687.00  1.5953E+002
 687.50  1.5673E+002
 688.00  1.4936E+002
 688.50  1.5052E+002
 689.00  1.5343E+002
 689.50  1.6479E+002
 690.00  1.6320E+002
 690.50  1.4764E+002
 691.00  1.5001E+002
 691.50  1.4866E+002
 692.00  1.5260E+002
 692.50  1.4953E+002
 693.00  1.5546E+002
 693.50  1.5214E+002
 694.00  1.4996E+002
 694.50  1.5632E+002
 695.00  1.4869E+002
 695.50  1.4866E+002
 696.00  1.5446E+002
 696.50  1.4938E+002
 697.00  1.5723E+002
 697.50  1.4063E+002
 698.00  1.1972E+002
 698.50  1.4085E+002
 699.00  1.4255E+002
 699.50  1.3935E+002
 700.00  1.4120E+002
 700.50  1.5259E+002
 701.00  1.4661E+002
 701.50  1.6483E+002
 702.00  1.6431E+002
 702.50  1.6918E+002
 703.00  1.6598E+002
 703.50  1.5541E+002
 704.00  1.4943E+002
 704.50  1.4237E+002
 705.00  1.4330E+002
 705.50  1.1867E+002
 706.00  1.2049E+002
 706.50  1.2961E+002
 707.00  1.3968E+002
 707.50  1.4452E+002
 708.00  1.4820E+002
 708.50  1.4944E+002
 709.00  1.4952E+002
 709.50  1.5095E+002
 710.00  1.4904E+002
 710.50  1.6549E+002
 711.00  1.5162E+002
 711.50  1.5174E+002
 712.00  1.5463E+002
 712.50  1.5164E+002
 713.00  1.3900E+002
 713.50  1.4944E+002
 714.00  1.3727E+002
 714.50  1.4728E+002
 715.00  1.4436E+002
 715.50  1.3946E+002
 716.00  1.4912E+002
 716.50  1.6062E+002
 717.00  1.7091E+002
 717.50  1.7284E+002
 718.00  1.6314E+002
 718.50  1.4730E+002
 719.00  1.5340E+002
 719.50  1.5962E+002
 720.00  1.5265E+002
 720.50  1.3795E+002
 721.00  1.4276E+002
 721.50  1.3979E+002
 722.00  1.4225E+002
 722.50  1.3575E+002
 723.00  1.5626E+002
 723.50  1.7664E+002
 724.00  1.6947E+002
 724.50  1.8076E+002
 725.00  1.6948E+002
 725.50  1.6010E+002
 726.00  1.7633E+002
 726.50  1.7282E+002
 727.00  1.5684E+002
 727.50  1.4982E+002
 728.00  1.3946E+002
 728.50  1.4264E+002
 729.00  1.4867E+002
 729.50  1.5765E+002
 730.00  1.6654E+002
 730.50  1.5808E+002
 731.00  1.5936E+002
 731.50  1.6773E+002
 732.00  1.6361E+002
 732.50  1.7505E+002
 733.00  1.8438E+002
 733.50  1.7280E+002
 734.00  1.6198E+002
 734.50  1.5663E+002
 735.00  1.4520E+002
 735.50  1.5693E+002
 736.00  1.6541E+002
 736.50  1.8584E+002
 737.00  1.8630E+002
 737.50  1.7322E+002
 738.00  1.7630E+002
 738.50  1.8724E+002
 739.00  1.8424E+002
 739.50  1.8864E+002
 740.00  1.6863E+002
 740.50  1.7273E+002
 741.00  1.6418E+002
 741.50  1.6380E+002
 742.00  1.5113E+002
 742.50  1.5515E+002
 743.00  1.5962E+002
 743.50  1.6659E+002
 744.00  1.8341E+002
 744.50  1.6752E+002
 745.00  1.7315E+002
 745.50  1.6956E+002
 746.00  1.6587E+002
 746.50  1.7259E+002
 747.00  1.8012E+002
 747.50  1.7051E+002
 748.00  1.4844E+002
 748.50  1.6727E+002
 749.00  1.6659E+002
 749.50  1.6063E+002
 750.00  1.6743E+002
 750.50  1.5981E+002
 751.00  1.5432E+002
 751.50  1.4470E+002
 752.00  1.4610E+002
 752.50  1.5379E+002
 753.00  1.5405E+002
 753.50  1.5953E+002
 754.00  1.5978E+002
 754.50  1.5830E+002
 755.00  1.5579E+002
 755.50  1.6889E+002
 756.00  1.7370E+002
 756.50  1.7946E+002
 757.00  1.7626E+002
 757.50  1.5359E+002
 758.00  1.6177E+002
 758.50  1.6178E+002
 759.00  1.5934E+002
 759.50  1.7343E+002
 760.00  1.6787E+002
 760.50  1.7432E+002
 761.00  1.6273E+002
 761.50  1.6814E+002
 762.00  1.6446E+002
 762.50  1.7444E+002
 763.00  1.8347E+002
 763.50  1.7565E+002
 764.00  1.7479E+002
 764.50  1.6417E+002
 765.00  1.6309E+002
 765.50  1.4875E+002
 766.00  1.6124E+002
 766.50  1.4569E+002
 767.00  1.4957E+002
 767.50  1.7542E+002
 768.00  1.7924E+002
 768.50  1.8501E+002
 769.00  1.6810E+002
 769.50  1.8852E+002
 770.00  1.6132E+002
 770.50  1.6152E+002
 771.00  1.6433E+002
 771.50  1.5098E+002
 772.00  1.6666E+002
 772.50  1.6267E+002
 773.00  1.6508E+002
 773.50  1.7778E+002
 774.00  1.7968E+002
 774.50  1.6721E+002
 775.00  1.6062E+002
 775.50  1.5148E+002
 776.00  1.6703E+002
 776.50  1.5885E+002
 777.00  1.5034E+002
 777.50  1.6048E+002
 778.00  1.5001E+002
 778.50  1.5445E+002
 779.00  1.7442E+002
 779.50  1.7459E+002
 780.00  1.6682E+002
 780.50  1.6102E+002
 781.00  1.6151E+002
 781.50  1.5108E+002
 782.00  1.6973E+002
 782.50  1.5673E+002
 783.00  1.5193E+002
 783.50  1.6178E+002
 784.00  1.6963E+002
 784.50  1.8006E+002
 785.00  1.6729E+002
 785.50  1.7542E+002
 786.00  1.6587E+002
 786.50  1.5313E+002
 787.00  1.3491E+002
 787.50  1.6508E+002
 788.00  1.5845E+002
 788.50  1.6403E+002
 789.00  1.6724E+002
 789.50  1.5658E+002
 790.00  1.5566E+002
 790.50  1.6101E+002
 791.00  1.5930E+002
 791.50  1.5079E+002
 792.00  1.5495E+002
 792.50  1.4535E+002
 793.00  1.6022E+002
 793.50  1.4658E+002
 794.00  1.6180E+002
 794.50  1.4985E+002
 795.00  1.7146E+002
 795.50  1.6670E+002
 796.00  1.6250E+002
 796.50  1.5639E+002
 797.00  1.6771E+002
 797.50  1.8183E+002
 798.00  1.7183E+002
 798.50  1.6577E+002
 799.00  1.6264E+002
 799.50  1.6486E+002
 800.00  1.7653E+002
 800.50  1.5790E+002
 801.00  1.6910E+002
 801.50  1.6899E+002
 802.00  1.4986E+002
 802.50  1.4882E+002
 803.00  1.5086E+002
 803.50  1.5455E+002
 804.00  1.7190E+002
 804.50  1.6987E+002
 805.00  1.6982E+002
 805.50  1.4958E+002
 806.00  1.6030E+002
 806.50  1.6433E+002
 807.00  1.3926E+002
 807.50  1.4719E+002
 808.00  1.5365E+002
 808.50  1.5494E+002
 809.00  1.5869E+002
 809.50  1.5714E+002
 810.00  1.6724E+002
 810.50  1.7717E+002
 811.00  1.6814E+002
 811.50  1.5561E+002
 812.00  1.6128E+002
 812.50  1.6266E+002
 813.00  1.5558E+002
 813.50  1.4781E+002
 814.00  1.4811E+002
 814.50  1.3691E+002
 815.00  1.4882E+002
 815.50  1.4028E+002
 816.00  1.5111E+002
 816.50  1.3283E+002
 817.00  1.1665E+002
 817.50  1.4597E+002
 818.00  1.6000E+002
 818.50  1.5341E+002
 819.00  1.3657E+002
 819.50  1.6236E+002
 820.00  1.3892E+002
 820.50  1.4938E+002
 821.00  1.5032E+002
 821.50  1.3456E+002
 822.00  1.4163E+002
 822.50  1.4163E+002
 823.00  1.3519E+002
 823.50  1.4469E+002
 824.00  1.4608E+002
 824.50  1.3986E+002
 825.00  1.3942E+002
 825.50  1.6062E+002
 826.00  1.4826E+002
 826.50  1.6644E+002
 827.00  1.6439E+002
 827.50  1.5106E+002
 828.00  1.6493E+002
 828.50  1.6014E+002
 829.00  1.5225E+002
 829.50  1.5681E+002
 830.00  1.5184E+002
 830.50  1.5730E+002
 831.00  1.6698E+002
 831.50  1.6589E+002
 832.00  1.7020E+002
 832.50  1.6889E+002
 833.00  1.7095E+002
 833.50  1.6628E+002
 834.00  1.5739E+002
 834.50  1.3784E+002
 835.00  1.5896E+002
 835.50  1.4940E+002
 836.00  1.5071E+002
 836.50  1.5979E+002
 837.00  1.5285E+002
 837.50  1.4830E+002
 838.00  1.4586E+002
 838.50  1.3890E+002
 839.00  1.3864E+002
 839.50  1.3660E+002
 840.00  1.4390E+002
 840.50  1.4340E+002
 841.00  1.5315E+002
 841.50  1.6638E+002
 842.00  1.5877E+002
 842.50  1.4714E+002
 843.00  1.4431E+002
 843.50  1.4756E+002
 844.00  1.5230E+002
 844.50  1.5249E+002
 845.00  1.2737E+002
 845.50  1.3151E+002
 846.00  1.4516E+002
 846.50  1.5229E+002
 847.00  1.6195E+002
 847.50  1.7053E+002
 848.00  1.4711E+002
 848.50  1.5611E+002
 849.00  1.5630E+002
 849.50  1.6569E+002
 850.00  1.4628E+002
 850.50  1.6228E+002
 851.00  1.5767E+002
 851.50  1.5309E+002
 852.00  1.5222E+002
 852.50  1.2719E+002
 853.00  1.2457E+002
 853.50  1.3113E+002
 854.00  1.3322E+002
 854.50  1.2079E+002
 855.00  1.4178E+002
 855.50  1.4374E+002
 856.00  1.4359E+002
 856.50  1.2995E+002
 857.00  1.2999E+002
 857.50  1.3250E+002
 858.00  1.3825E+002
 858.50  1.2304E+002
 859.00  1.3043E+002
 859.50  1.2329E+002
 860.00  1.3574E+002
 860.50  1.3537E+002
 861.00  1.4002E+002
 861.50  1.4695E+002
 862.00  1.4945E+002
 862.50  1.4494E+002
 863.00  1.4816E+002
 863.50  1.2526E+002
 864.00  1.3607E+002
 864.50  1.3506E+002
 865.00  1.2797E+002
 865.50  1.2196E+002
 866.00  1.1941E+002
 866.50  1.2931E+002
 867.00  1.1997E+002
 867.50  1.0807E+002
 868.00  1.2080E+002
 868.50  1.3696E+002
 869.00  1.2538E+002
 869.50  1.2317E+002
 870.00  1.2481E+002
 870.50  1.1771E+002
 871.00  1.1786E+002
 871.50  1.3991E+002
 872.00  1.2106E+002
 872.50  1.1971E+002
 873.00  1.1909E+002
 873.50  1.2220E+002
 874.00  1.2637E+002
 874.50  1.1437E+002
 875.00  1.0816E+002
 875.50  1.1406E+002
 876.00  1.2016E+002
 876.50  1.1620E+002
 877.00  1.2649E+002
 877.50  1.1585E+002
 878.00  1.3477E+002
 878.50  1.3661E+002
 879.00  1.1044E+002
 879.50  1.2438E+002
 880.00  1.3932E+002
 880.50  1.4125E+002
 881.00  1.2946E+002
 881.50  1.3747E+002
 882.00  1.1953E+002
 882.50  1.2244E+002
 883.00  1.2491E+002
 883.50  1.2461E+002
 884.00  1.2004E+002
 884.50  1.1330E+002
 885.00  1.1823E+002
 885.50  1.1976E+002
 886.00  1.1579E+002
 886.50  1.2824E+002
 887.00  1.3451E+002
 887.50  1.2840E+002
 888.00  1.3338E+002
 888.50  1.3015E+002
 889.00  1.2420E+002
 889.50  1.2123E+002
 890.00  1.1616E+002
 890.50  1.1472E+002
 891.00  9.8550E+001
 891.50  1.1377E+002
 892.00  1.2179E+002
 892.50  1.2214E+002
 893.00  1.1671E+002
 893.50  1.1473E+002
 894.00  1.1310E+002
 894.50  1.3491E+002
 895.00  1.2928E+002
 895.50  1.2453E+002
 896.00  1.2957E+002
 896.50  1.1305E+002
 897.00  1.1381E+002
 897.50  1.3003E+002
 898.00  1.2402E+002
 898.50  1.1347E+002
 899.00  1.2338E+002
 899.50  1.2390E+002
