" File: Users\Wavelength\Desktop\test finger.SSM
"  SCOPE->  Wave:448.60nm  Pix:451  Val: 13.000  Time: 70ms  Avg:5  Sm:0  Sg:0  Tc:off  Z  SNAP  Xt:1  Ch:1  Xtrig  
 400.00  -1.0328E+001
 400.50  -3.8936E+000
 401.00  -4.9168E+000
 401.50  -9.6327E+000
 402.00  -9.0680E+000
 402.50  -7.4541E+000
 403.00  -6.5362E+000
 403.50  -2.0245E+001
 404.00  -2.9876E+001
 404.50  -3.3846E+001
 405.00  -2.2152E+001
 405.50  -1.4583E+001
 406.00  -1.8032E+001
 406.50  -1.0711E+001
 407.00  -1.8227E+001
 407.50  -1.6094E+001
 408.00  -6.0041E+000
 408.50  -1.9057E+000
 409.00  -1.3115E+000
 409.50  -3.2678E+000
 410.00  6.9679E-001
 410.50  -7.5448E-001
 411.00  -1.4092E+001
 411.50  -1.5800E+001
 412.00  -3.5765E+000
 412.50  -2.6832E+000
 413.00  -6.9266E+000
 413.50  -1.2193E+001
 414.00  -1.2686E+001
 414.50  -1.6753E+001
 415.00  -1.7372E+001
 415.50  -1.5161E+001
 416.00  -2.0200E+001
 416.50  -1.9728E+001
 417.00  -1.8530E+001
 417.50  -2.0163E+001
 418.00  -2.1894E+001
 418.50  -1.4690E+001
 419.00  -9.1090E+000
 419.50  -4.8776E+000
 420.00  -7.8850E+000
 420.50  -2.1469E+001
 421.00  -1.7148E+001
 421.50  -3.1294E+000
 422.00  1.1348E+001
 422.50  1.1639E+001
 423.00  -2.6470E+000
 423.50  -5.3833E+000
 424.00  -9.0089E+000
 424.50  -1.2688E+001
 425.00  -3.2089E+000
 425.50  1.2468E+000
 426.00  4.0002E+000
 426.50  1.3339E+001
 427.00  -1.7031E+000
 427.50  -2.3728E+001
 428.00  -1.5748E+001
 428.50  -9.3209E+000
 429.00  -1.8291E+001
 429.50  -2.0439E+001
 430.00  -1.6781E+001
 430.50  -1.1270E+001
 431.00  -1.1582E+001
 431.50  -1.8645E+001
 432.00  -9.1352E+000
 432.50  -1.4058E+001
 433.00  -2.4735E+001
 433.50  -1.3793E+001
 434.00  -1.5570E+001
 434.50  -1.7985E+001
 435.00  -2.2634E+001
 435.50  -1.4415E+001
 436.00  -1.2362E+001
 436.50  -5.2509E+000
 437.00  6.3444E+000
 437.50  4.7447E+000
 438.00  8.4644E+000
 438.50  1.0969E+001
 439.00  1.0686E+001
 439.50  9.0253E+000
 440.00  5.1241E-001
 440.50  5.5985E+000
 441.00  1.4371E+001
 441.50  1.2608E+001
 442.00  -8.9663E-001
 442.50  -1.3651E+001
 443.00  -5.9942E+000
 443.50  3.5588E+000
 444.00  7.5468E+000
 444.50  9.0098E+000
 445.00  1.1354E+000
 445.50  8.5543E-001
 446.00  1.0473E+000
 446.50  -2.7734E+000
 447.00  3.1021E-002
 447.50  -1.3341E+001
 448.00  -1.7578E+000
 448.50  1.0872E+001
 449.00  -1.7428E+000
 449.50  1.0094E+001
 450.00  3.3089E+000
 450.50  -2.5163E+000
 451.00  1.2786E+001
 451.50  1.8199E+001
 452.00  -3.6473E+000
 452.50  -1.2014E+001
 453.00  -7.4413E+000
 453.50  7.0579E+000
 454.00  2.0889E+000
 454.50  -4.9885E+000
 455.00  -2.3351E+001
 455.50  -9.2165E+000
 456.00  -1.4012E+001
 456.50  -4.7439E+000
 457.00  1.6345E+000
 457.50  -1.3021E+000
 458.00  -2.4546E+000
 458.50  3.0847E-001
 459.00  6.8964E+000
 459.50  -1.9885E+001
 460.00  -1.3420E+001
 460.50  -1.5663E+001
 461.00  1.1902E+000
 461.50  5.8197E-001
 462.00  4.1329E+000
 462.50  -2.6782E+000
 463.00  1.7634E-002
 463.50  -6.1812E+000
 464.00  -1.2818E+001
 464.50  -1.5856E+001
 465.00  -1.7758E+001
 465.50  -2.5603E+001
 466.00  -2.5121E+001
 466.50  -5.7657E+000
 467.00  1.5508E+000
 467.50  -2.0179E+001
 468.00  -2.5467E+001
 468.50  -2.3682E+001
 469.00  -2.2238E+001
 469.50  -2.6299E+001
 470.00  -2.1706E+001
 470.50  -1.2033E+001
 471.00  -3.1576E+000
 471.50  -5.9812E+000
 472.00  -4.9414E+000
 472.50  -7.5560E+000
 473.00  -5.7903E+000
 473.50  -8.7934E+000
 474.00  -1.0826E+001
 474.50  6.9345E+000
 475.00  1.2533E+001
 475.50  1.0394E+001
 476.00  -4.5162E+000
 476.50  9.0923E+000
 477.00  3.0480E+001
 477.50  1.5791E+001
 478.00  7.8643E+000
 478.50  -1.1240E+001
 479.00  8.5486E+000
 479.50  2.0440E+001
 480.00  2.5090E+001
 480.50  1.6406E+001
 481.00  1.0292E+001
 481.50  -2.5684E-001
 482.00  3.9008E+000
 482.50  1.0170E+001
 483.00  1.4548E+001
 483.50  2.5058E+000
 484.00  6.2152E-001
 484.50  -1.2893E+001
 485.00  -1.4614E+001
 485.50  -2.5374E+000
 486.00  -1.3718E+000
 486.50  6.2032E+000
 487.00  1.0864E+001
 487.50  1.0581E+001
 488.00  2.7510E+000
 488.50  4.0643E+000
 489.00  1.6938E+001
 489.50  2.4224E+001
 490.00  1.8835E+001
 490.50  2.0866E+001
 491.00  2.6142E+001
 491.50  2.0775E+001
 492.00  1.6858E+001
 492.50  7.1793E+000
 493.00  -1.6093E+000
 493.50  6.7881E+000
 494.00  -1.6505E+001
 494.50  -5.4678E+000
 495.00  -1.5543E+001
 495.50  4.3275E+000
 496.00  1.3547E+000
 496.50  4.6970E+000
 497.00  7.2001E+000
 497.50  6.4009E+000
 498.00  8.6305E+000
 498.50  1.7588E+000
 499.00  -2.1970E+000
 499.50  5.9611E+000
 500.00  1.4762E+001
 500.50  1.4491E+001
 501.00  6.0790E+000
 501.50  1.1777E+001
 502.00  2.0193E+001
 502.50  2.2952E+001
 503.00  1.6409E+001
 503.50  1.9988E+001
 504.00  2.5372E+001
 504.50  2.8430E+001
 505.00  3.4053E+001
 505.50  2.5533E+001
 506.00  2.4607E+001
 506.50  3.2558E+001
 507.00  3.9242E+001
 507.50  2.3088E+001
 508.00  9.7932E+000
 508.50  1.7219E+001
 509.00  9.7091E+000
 509.50  1.7165E+001
 510.00  1.6253E+001
 510.50  2.2537E+001
 511.00  3.7437E+001
 511.50  4.2508E+001
 512.00  4.6635E+001
 512.50  2.7823E+001
 513.00  1.8943E+001
 513.50  2.7913E+001
 514.00  2.0183E+001
 514.50  6.1030E+000
 515.00  9.3059E+000
 515.50  1.3607E+001
 516.00  7.3423E+000
 516.50  9.9629E+000
 517.00  1.5744E+001
 517.50  1.4947E+001
 518.00  1.5843E+001
 518.50  2.2907E+001
 519.00  1.6154E+001
 519.50  2.9831E+001
 520.00  3.1417E+001
 520.50  3.6539E+001
 521.00  3.4203E+001
 521.50  2.6928E+001
 522.00  1.4107E+001
 522.50  3.2339E+001
 523.00  3.3528E+001
 523.50  3.4923E+001
 524.00  2.8600E+001
 524.50  2.2295E+001
 525.00  1.6000E+001
 525.50  1.3727E+001
 526.00  8.4440E+000
 526.50  -1.2686E+000
 527.00  2.5701E+000
 527.50  7.7096E+000
 528.00  9.2472E+000
 528.50  8.6818E+000
 529.00  2.8898E+001
 529.50  1.1010E+001
 530.00  8.7898E+000
 530.50  3.4228E+001
 531.00  2.8092E+001
 531.50  2.4100E+001
 532.00  3.0806E+001
 532.50  2.2764E+001
 533.00  2.3607E+001
 533.50  4.0134E+001
 534.00  3.0096E+001
 534.50  1.8336E+001
 535.00  2.9796E+001
 535.50  2.7224E+001
 536.00  3.5259E+001
 536.50  2.7422E+001
 537.00  4.2831E+001
 537.50  2.9364E+001
 538.00  3.5578E+001
 538.50  3.1613E+001
 539.00  3.6755E+001
 539.50  2.0820E+001
 540.00  2.9911E+001
 540.50  3.6200E+001
 541.00  3.4906E+001
 541.50  3.3645E+001
 542.00  3.4532E+001
 542.50  3.4483E+001
 543.00  4.6896E+001
 543.50  4.7916E+001
 544.00  5.9631E+001
 544.50  5.2988E+001
 545.00  4.4096E+001
 545.50  3.7271E+001
 546.00  5.1949E+001
 546.50  3.3284E+001
 547.00  2.2507E+001
 547.50  3.0782E+001
 548.00  2.6102E+001
 548.50  3.2895E+001
 549.00  4.4673E+001
 549.50  3.1074E+001
 550.00  2.7036E+001
 550.50  4.0142E+001
 551.00  4.2563E+001
 551.50  4.3309E+001
 552.00  3.9166E+001
 552.50  3.7464E+001
 553.00  3.9342E+001
 553.50  4.6713E+001
 554.00  5.3512E+001
 554.50  3.8570E+001
 555.00  3.4890E+001
 555.50  3.0645E+001
 556.00  3.4075E+001
 556.50  2.3223E+001
 557.00  3.7489E+001
 557.50  2.9299E+001
 558.00  1.9672E+001
 558.50  3.1511E+001
 559.00  3.8473E+001
 559.50  3.2543E+001
 560.00  4.3200E+001
 560.50  4.1856E+001
 561.00  3.5966E+001
 561.50  4.7358E+001
 562.00  4.1507E+001
 562.50  4.6893E+001
 563.00  5.0922E+001
 563.50  3.1046E+001
 564.00  6.7216E+001
 564.50  4.4448E+001
 565.00  5.0451E+001
 565.50  3.5768E+001
 566.00  3.8062E+001
 566.50  4.4535E+001
 567.00  4.4587E+001
 567.50  3.8735E+001
 568.00  3.1667E+001
 568.50  4.6994E+001
 569.00  3.7044E+001
 569.50  4.5181E+001
 570.00  3.7676E+001
 570.50  6.1348E+001
 571.00  5.7747E+001
 571.50  4.6957E+001
 572.00  5.3467E+001
 572.50  4.9112E+001
 573.00  5.4284E+001
 573.50  6.9385E+001
 574.00  6.0331E+001
 574.50  5.6636E+001
 575.00  5.6135E+001
 575.50  5.7251E+001
 576.00  5.3146E+001
 576.50  6.0294E+001
 577.00  5.4576E+001
 577.50  4.6118E+001
 578.00  4.7304E+001
 578.50  4.4083E+001
 579.00  6.4318E+001
 579.50  7.4273E+001
 580.00  8.0286E+001
 580.50  6.9507E+001
 581.00  6.2146E+001
 581.50  5.6941E+001
 582.00  5.5073E+001
 582.50  6.3742E+001
 583.00  5.3289E+001
 583.50  4.2873E+001
 584.00  5.9395E+001
 584.50  6.2639E+001
 585.00  5.7314E+001
 585.50  5.8227E+001
 586.00  6.9395E+001
 586.50  6.8009E+001
 587.00  8.5034E+001
 587.50  7.8084E+001
 588.00  6.5422E+001
 588.50  7.1420E+001
 589.00  7.4478E+001
 589.50  7.8502E+001
 590.00  7.9034E+001
 590.50  8.0979E+001
 591.00  7.1096E+001
 591.50  8.4136E+001
 592.00  9.0210E+001
 592.50  8.7359E+001
 593.00  9.7370E+001
 593.50  1.0355E+002
 594.00  1.0945E+002
 594.50  1.0660E+002
 595.00  8.7973E+001
 595.50  9.3689E+001
 596.00  1.2758E+002
 596.50  8.9268E+001
 597.00  9.0713E+001
 597.50  8.7560E+001
 598.00  9.1624E+001
 598.50  8.6778E+001
 599.00  9.5841E+001
 599.50  1.0678E+002
 600.00  1.0265E+002
 600.50  9.7900E+001
 601.00  1.0189E+002
 601.50  1.1144E+002
 602.00  1.1242E+002
 602.50  1.2038E+002
 603.00  1.2031E+002
 603.50  1.2537E+002
 604.00  1.2717E+002
 604.50  1.2958E+002
 605.00  1.2817E+002
 605.50  1.2735E+002
 606.00  1.1900E+002
 606.50  1.3958E+002
 607.00  1.5795E+002
 607.50  1.4035E+002
 608.00  1.5575E+002
 608.50  1.5289E+002
 609.00  1.3838E+002
 609.50  1.5318E+002
 610.00  1.6069E+002
 610.50  1.5647E+002
 611.00  1.4716E+002
 611.50  1.5135E+002
 612.00  1.4942E+002
 612.50  1.4707E+002
 613.00  1.3017E+002
 613.50  1.4631E+002
 614.00  1.4072E+002
 614.50  1.4696E+002
 615.00  1.5347E+002
 615.50  1.4981E+002
 616.00  1.4558E+002
 616.50  1.3707E+002
 617.00  1.5091E+002
 617.50  1.3797E+002
 618.00  1.6521E+002
 618.50  1.4400E+002
 619.00  1.5213E+002
 619.50  1.4154E+002
 620.00  1.4424E+002
 620.50  1.5908E+002
 621.00  1.5133E+002
 621.50  1.3989E+002
 622.00  1.4224E+002
 622.50  1.6426E+002
 623.00  1.6323E+002
 623.50  1.5839E+002
 624.00  1.4778E+002
 624.50  1.6224E+002
 625.00  1.5414E+002
 625.50  1.4017E+002
 626.00  1.4696E+002
 626.50  1.4515E+002
 627.00  1.6203E+002
 627.50  1.4655E+002
 628.00  1.4621E+002
 628.50  1.5656E+002
 629.00  1.4533E+002
 629.50  1.5431E+002
 630.00  1.5432E+002
 630.50  1.5396E+002
 631.00  1.4891E+002
 631.50  1.5991E+002
 632.00  1.6111E+002
 632.50  1.5817E+002
 633.00  1.6615E+002
 633.50  1.7362E+002
 634.00  1.6805E+002
 634.50  1.6713E+002
 635.00  1.5113E+002
 635.50  1.5065E+002
 636.00  1.4749E+002
 636.50  1.4277E+002
 637.00  1.4420E+002
 637.50  1.5398E+002
 638.00  1.4104E+002
 638.50  1.3800E+002
 639.00  1.4045E+002
 639.50  1.5180E+002
 640.00  1.5892E+002
 640.50  1.5138E+002
 641.00  1.4340E+002
 641.50  1.5416E+002
 642.00  1.6716E+002
 642.50  1.6577E+002
 643.00  1.6624E+002
 643.50  1.8071E+002
 644.00  1.8422E+002
 644.50  1.6657E+002
 645.00  1.6153E+002
 645.50  1.5530E+002
 646.00  1.4820E+002
 646.50  1.5409E+002
 647.00  1.5694E+002
 647.50  1.6567E+002
 648.00  1.5892E+002
 648.50  1.6131E+002
 649.00  1.6609E+002
 649.50  1.7579E+002
 650.00  1.5848E+002
 650.50  1.5493E+002
 651.00  1.7728E+002
 651.50  1.6719E+002
 652.00  1.7381E+002
 652.50  1.8126E+002
 653.00  1.8209E+002
 653.50  1.7165E+002
 654.00  1.7604E+002
 654.50  1.7321E+002
 655.00  1.7257E+002
 655.50  1.4656E+002
 656.00  1.5580E+002
 656.50  1.6156E+002
 657.00  1.6417E+002
 657.50  1.6091E+002
 658.00  1.6389E+002
 658.50  1.5841E+002
 659.00  1.5084E+002
 659.50  1.6815E+002
 660.00  1.6374E+002
 660.50  1.5791E+002
 661.00  1.6596E+002
 661.50  1.6450E+002
 662.00  1.6054E+002
 662.50  1.5373E+002
 663.00  1.6697E+002
 663.50  1.5633E+002
 664.00  1.7515E+002
 664.50  1.6098E+002
 665.00  1.6366E+002
 665.50  1.5603E+002
 666.00  1.5038E+002
 666.50  1.6424E+002
 667.00  1.5360E+002
 667.50  1.5767E+002
 668.00  1.6119E+002
 668.50  1.7235E+002
 669.00  1.6251E+002
 669.50  1.6040E+002
 670.00  1.5837E+002
 670.50  1.5554E+002
 671.00  1.4887E+002
 671.50  1.4840E+002
 672.00  1.4407E+002
 672.50  1.5481E+002
 673.00  1.5837E+002
 673.50  1.6260E+002
 674.00  1.5280E+002
 674.50  1.5872E+002
 675.00  1.5973E+002
 675.50  1.7585E+002
 676.00  1.6310E+002
 676.50  1.7241E+002
 677.00  1.6484E+002
 677.50  1.6779E+002
 678.00  1.6328E+002
 678.50  1.5594E+002
 679.00  1.6557E+002
 679.50  1.6733E+002
 680.00  1.7743E+002
 680.50  1.7236E+002
 681.00  1.6298E+002
 681.50  1.5900E+002
 682.00  1.6802E+002
 682.50  1.7753E+002
 683.00  1.5690E+002
 683.50  1.7168E+002
 684.00  1.7578E+002
 684.50  1.7021E+002
 685.00  1.8042E+002
 685.50  1.8005E+002
 686.00  1.8078E+002
 686.50  1.7947E+002
 687.00  1.7380E+002
 687.50  1.6724E+002
 688.00  1.7361E+002
 688.50  1.6780E+002
 689.00  1.5930E+002
 689.50  1.7638E+002
 690.00  1.7640E+002
 690.50  1.6968E+002
 691.00  1.6377E+002
 691.50  1.6148E+002
 692.00  1.6475E+002
 692.50  1.6897E+002
 693.00  1.6959E+002
 693.50  1.5750E+002
 694.00  1.6386E+002
 694.50  1.7121E+002
 695.00  1.5756E+002
 695.50  1.5893E+002
 696.00  1.7190E+002
 696.50  1.6597E+002
 697.00  1.6813E+002
 697.50  1.8043E+002
 698.00  1.5740E+002
 698.50  1.6102E+002
 699.00  1.5153E+002
 699.50  1.5706E+002
 700.00  1.5775E+002
 700.50  1.5351E+002
 701.00  1.5385E+002
 701.50  1.6342E+002
 702.00  1.6500E+002
 702.50  1.5824E+002
 703.00  1.5119E+002
 703.50  1.4742E+002
 704.00  1.5501E+002
 704.50  1.4849E+002
 705.00  1.5189E+002
 705.50  1.3986E+002
 706.00  1.4288E+002
 706.50  1.4988E+002
 707.00  1.5494E+002
 707.50  1.4976E+002
 708.00  1.6561E+002
 708.50  1.5414E+002
 709.00  1.6226E+002
 709.50  1.6169E+002
 710.00  1.6536E+002
 710.50  1.7554E+002
 711.00  1.7058E+002
 711.50  1.6028E+002
 712.00  1.5132E+002
 712.50  1.5112E+002
 713.00  1.5077E+002
 713.50  1.5248E+002
 714.00  1.5316E+002
 714.50  1.6080E+002
 715.00  1.4991E+002
 715.50  1.4408E+002
 716.00  1.4768E+002
 716.50  1.4813E+002
 717.00  1.6474E+002
 717.50  1.5405E+002
 718.00  1.5330E+002
 718.50  1.4560E+002
 719.00  1.5000E+002
 719.50  1.5282E+002
 720.00  1.3926E+002
 720.50  1.4708E+002
 721.00  1.4545E+002
 721.50  1.5084E+002
 722.00  1.5224E+002
 722.50  1.4072E+002
 723.00  1.5506E+002
 723.50  1.6585E+002
 724.00  1.6572E+002
 724.50  1.7346E+002
 725.00  1.5709E+002
 725.50  1.5003E+002
 726.00  1.6911E+002
 726.50  1.6882E+002
 727.00  1.7462E+002
 727.50  1.6554E+002
 728.00  1.4968E+002
 728.50  1.4669E+002
 729.00  1.4742E+002
 729.50  1.5199E+002
 730.00  1.3661E+002
 730.50  1.4420E+002
 731.00  1.5402E+002
 731.50  1.5669E+002
 732.00  1.4443E+002
 732.50  1.6821E+002
 733.00  1.6249E+002
 733.50  1.4501E+002
 734.00  1.5583E+002
 734.50  1.6446E+002
 735.00  1.5123E+002
 735.50  1.4306E+002
 736.00  1.4230E+002
 736.50  1.8021E+002
 737.00  1.6790E+002
 737.50  1.6170E+002
 738.00  1.6040E+002
 738.50  1.7665E+002
 739.00  1.5796E+002
 739.50  1.7217E+002
 740.00  1.5000E+002
 740.50  1.6536E+002
 741.00  1.5958E+002
 741.50  1.5389E+002
 742.00  1.5546E+002
 742.50  1.5362E+002
 743.00  1.5596E+002
 743.50  1.5600E+002
 744.00  1.7491E+002
 744.50  1.5870E+002
 745.00  1.6470E+002
 745.50  1.5962E+002
 746.00  1.5428E+002
 746.50  1.5025E+002
 747.00  1.5775E+002
 747.50  1.4911E+002
 748.00  1.5067E+002
 748.50  1.5650E+002
 749.00  1.5563E+002
 749.50  1.6253E+002
 750.00  1.6233E+002
 750.50  1.7194E+002
 751.00  1.5651E+002
 751.50  1.5579E+002
 752.00  1.5261E+002
 752.50  1.5065E+002
 753.00  1.4605E+002
 753.50  1.4873E+002
 754.00  1.4526E+002
 754.50  1.5803E+002
 755.00  1.6118E+002
 755.50  1.6342E+002
 756.00  1.7942E+002
 756.50  1.7623E+002
 757.00  1.7797E+002
 757.50  1.5974E+002
 758.00  1.5726E+002
 758.50  1.5745E+002
 759.00  1.6427E+002
 759.50  1.5662E+002
 760.00  1.4290E+002
 760.50  1.5384E+002
 761.00  1.6135E+002
 761.50  1.6463E+002
 762.00  1.6515E+002
 762.50  1.7350E+002
 763.00  1.6066E+002
 763.50  1.6107E+002
 764.00  1.5431E+002
 764.50  1.5694E+002
 765.00  1.4095E+002
 765.50  1.4051E+002
 766.00  1.4300E+002
 766.50  1.2307E+002
 767.00  1.4157E+002
 767.50  1.3539E+002
 768.00  1.4214E+002
 768.50  1.5454E+002
 769.00  1.4980E+002
 769.50  1.6066E+002
 770.00  1.4909E+002
 770.50  1.5627E+002
 771.00  1.5282E+002
 771.50  1.4519E+002
 772.00  1.4926E+002
 772.50  1.5827E+002
 773.00  1.5952E+002
 773.50  1.6142E+002
 774.00  1.6344E+002
 774.50  1.5021E+002
 775.00  1.3095E+002
 775.50  1.3302E+002
 776.00  1.4431E+002
 776.50  1.5066E+002
 777.00  1.3905E+002
 777.50  1.4880E+002
 778.00  1.3855E+002
 778.50  1.3559E+002
 779.00  1.4613E+002
 779.50  1.5536E+002
 780.00  1.4188E+002
 780.50  1.4305E+002
 781.00  1.5441E+002
 781.50  1.3895E+002
 782.00  1.4108E+002
 782.50  1.5421E+002
 783.00  1.5037E+002
 783.50  1.6612E+002
 784.00  1.5615E+002
 784.50  1.6205E+002
 785.00  1.4908E+002
 785.50  1.4290E+002
 786.00  1.3776E+002
 786.50  1.4683E+002
 787.00  1.4373E+002
 787.50  1.6981E+002
 788.00  1.6145E+002
 788.50  1.5263E+002
 789.00  1.4816E+002
 789.50  1.4743E+002
 790.00  1.5370E+002
 790.50  1.6080E+002
 791.00  1.4794E+002
 791.50  1.4386E+002
 792.00  1.3016E+002
 792.50  1.3144E+002
 793.00  1.5206E+002
 793.50  1.4834E+002
 794.00  1.4618E+002
 794.50  1.3189E+002
 795.00  1.4991E+002
 795.50  1.5380E+002
 796.00  1.3838E+002
 796.50  1.3454E+002
 797.00  1.3699E+002
 797.50  1.3937E+002
 798.00  1.4305E+002
 798.50  1.4618E+002
 799.00  1.5231E+002
 799.50  1.4936E+002
 800.00  1.6297E+002
 800.50  1.5115E+002
 801.00  1.5053E+002
 801.50  1.5500E+002
 802.00  1.4773E+002
 802.50  1.4751E+002
 803.00  1.3447E+002
 803.50  1.5342E+002
 804.00  1.5536E+002
 804.50  1.4288E+002
 805.00  1.5333E+002
 805.50  1.3799E+002
 806.00  1.4313E+002
 806.50  1.5453E+002
 807.00  1.4126E+002
 807.50  1.4934E+002
 808.00  1.4503E+002
 808.50  1.3983E+002
 809.00  1.4166E+002
 809.50  1.2277E+002
 810.00  1.4370E+002
 810.50  1.3982E+002
 811.00  1.4536E+002
 811.50  1.2601E+002
 812.00  1.3483E+002
 812.50  1.4326E+002
 813.00  1.4270E+002
 813.50  1.4123E+002
 814.00  1.3501E+002
 814.50  1.2162E+002
 815.00  1.4928E+002
 815.50  1.3601E+002
 816.00  1.3832E+002
 816.50  1.2155E+002
 817.00  1.1370E+002
 817.50  1.3728E+002
 818.00  1.4361E+002
 818.50  1.4214E+002
 819.00  1.5737E+002
 819.50  1.7500E+002
 820.00  1.3533E+002
 820.50  1.4051E+002
 821.00  1.4200E+002
 821.50  1.3525E+002
 822.00  1.3399E+002
 822.50  1.3666E+002
 823.00  1.2935E+002
 823.50  1.2630E+002
 824.00  1.2908E+002
 824.50  1.2237E+002
 825.00  1.3513E+002
 825.50  1.4266E+002
 826.00  1.3042E+002
 826.50  1.4634E+002
 827.00  1.4405E+002
 827.50  1.3689E+002
 828.00  1.2444E+002
 828.50  1.3925E+002
 829.00  1.2560E+002
 829.50  1.3208E+002
 830.00  1.2444E+002
 830.50  1.3791E+002
 831.00  1.5340E+002
 831.50  1.5362E+002
 832.00  1.5035E+002
 832.50  1.4874E+002
 833.00  1.4800E+002
 833.50  1.4591E+002
 834.00  1.4961E+002
 834.50  1.3071E+002
 835.00  1.3410E+002
 835.50  1.3333E+002
 836.00  1.2608E+002
 836.50  1.2342E+002
 837.00  1.4487E+002
 837.50  1.4105E+002
 838.00  1.3533E+002
 838.50  1.3594E+002
 839.00  1.2716E+002
 839.50  1.3184E+002
 840.00  1.4069E+002
 840.50  1.5608E+002
 841.00  1.4076E+002
 841.50  1.5214E+002
 842.00  1.5081E+002
 842.50  1.4469E+002
 843.00  1.3942E+002
 843.50  1.4713E+002
 844.00  1.4219E+002
 844.50  1.2886E+002
 845.00  1.2649E+002
 845.50  1.3376E+002
 846.00  1.2808E+002
 846.50  1.2808E+002
 847.00  1.4864E+002
 847.50  1.4656E+002
 848.00  1.3962E+002
 848.50  1.3517E+002
 849.00  1.3290E+002
 849.50  1.4614E+002
 850.00  1.3777E+002
 850.50  1.3151E+002
 851.00  1.4775E+002
 851.50  1.4282E+002
 852.00  1.3698E+002
 852.50  1.2909E+002
 853.00  1.2538E+002
 853.50  1.2782E+002
 854.00  1.3977E+002
 854.50  1.2415E+002
 855.00  1.4790E+002
 855.50  1.5229E+002
 856.00  1.4808E+002
 856.50  1.4063E+002
 857.00  1.3190E+002
 857.50  1.2897E+002
 858.00  1.3144E+002
 858.50  1.2685E+002
 859.00  1.2012E+002
 859.50  1.1332E+002
 860.00  1.1640E+002
 860.50  1.1478E+002
 861.00  1.1545E+002
 861.50  1.3234E+002
 862.00  1.2194E+002
 862.50  1.2096E+002
 863.00  1.2129E+002
 863.50  1.1239E+002
 864.00  1.1989E+002
 864.50  1.0933E+002
 865.00  1.0224E+002
 865.50  1.0801E+002
 866.00  1.0954E+002
 866.50  1.1445E+002
 867.00  1.2034E+002
 867.50  1.0651E+002
 868.00  1.1086E+002
 868.50  1.1878E+002
 869.00  1.0874E+002
 869.50  1.1249E+002
 870.00  1.2496E+002
 870.50  1.1897E+002
 871.00  1.1701E+002
 871.50  1.1979E+002
 872.00  1.1282E+002
 872.50  1.1218E+002
 873.00  1.0633E+002
 873.50  1.0320E+002
 874.00  1.2382E+002
 874.50  1.1136E+002
 875.00  1.2323E+002
 875.50  1.0318E+002
 876.00  1.1370E+002
 876.50  1.0937E+002
 877.00  1.2338E+002
 877.50  1.0720E+002
 878.00  1.1153E+002
 878.50  9.9322E+001
 879.00  1.1874E+002
 879.50  1.2233E+002
 880.00  1.1725E+002
 880.50  1.1306E+002
 881.00  1.1505E+002
 881.50  1.0834E+002
 882.00  9.5247E+001
 882.50  1.0857E+002
 883.00  9.9954E+001
 883.50  1.0208E+002
 884.00  9.2788E+001
 884.50  9.1608E+001
 885.00  1.1767E+002
 885.50  1.0200E+002
 886.00  9.7906E+001
 886.50  1.2385E+002
 887.00  1.2599E+002
 887.50  1.0506E+002
 888.00  1.1052E+002
 888.50  1.1345E+002
 889.00  1.0770E+002
 889.50  9.7033E+001
 890.00  1.0076E+002
 890.50  9.4652E+001
 891.00  9.1600E+001
 891.50  8.7176E+001
 892.00  9.8318E+001
 892.50  9.6282E+001
 893.00  9.8990E+001
 893.50  1.0495E+002
 894.00  1.1363E+002
 894.50  1.1486E+002
 895.00  1.2068E+002
 895.50  1.2933E+002
 896.00  1.4232E+002
 896.50  1.4206E+002
 897.00  1.3170E+002
 897.50  1.3308E+002
 898.00  1.3550E+002
 898.50  1.4125E+002
 899.00  1.3411E+002
 899.50  1.1693E+002
